=====Start_data=====
Date: 23/01/2022, Time: 00:00
Notes: filter and calibrated data
Collection period (s): 20.00, Sampling Frequency (Hz): 50.00
Counter, Distance(mm)
0,4.01,-22.87
1,12.59,-7.63
2,25.9,16.01
3,41.82,44.22
4,58.78,74.14
5,75.6,103.65
6,91.37,131.32
7,105.51,156.25
8,117.68,177.93
9,127.86,196.17
10,136.12,211.03
11,142.54,222.78
12,147.3,231.75
13,150.62,238.32
14,152.87,242.8
15,154.28,245.55
16,155.1,246.83
17,155.46,246.98
18,155.47,246.39
19,155.24,245.36
20,154.85,244.15
21,154.24,242.62
22,153.43,240.83
23,152.21,238.63
24,150.62,236.14
25,148.72,233.48
26,146.5,230.82
27,144.06,228.28
28,141.25,225.76
29,138.21,223.3
30,135.06,220.92
31,131.83,218.67
32,128.64,216.6
33,125.38,214.59
34,122.15,212.63
35,119.03,210.75
36,116.22,209.07
37,113.83,207.65
38,112.4,206.72
39,111.98,206.3
40,112.54,206.37
41,114.14,206.95
42,116.56,207.97
43,119.66,209.38
44,123.12,211.01
45,126.81,212.93
46,130.56,215.04
47,134.23,217.27
48,137.56,219.56
49,140.44,221.83
50,142.84,224.13
51,144.78,226.37
52,146.31,228.51
53,147.37,230.28
54,147.98,231.6
55,148.28,232.22
56,148.38,232.22
57,148.38,231.67
58,148.09,230.9
59,147.51,230.09
60,146.43,229.01
61,144.96,227.62
62,143.18,225.92
63,141.07,224.01
64,138.73,222.02
65,135.99,220.01
66,132.97,218.08
67,129.6,216.29
68,126.07,214.6
69,122.52,213
70,119.42,211.51
71,116.93,210.17
72,115.56,209.33
73,115.27,209.04
74,115.96,209.32
75,117.62,210.01
76,120.03,210.95
77,123.06,212.13
78,126.38,213.44
79,129.75,214.81
80,132.99,216.27
81,135.95,217.76
82,138.48,219.43
83,140.54,221.23
84,142.11,223.12
85,143.34,224.89
86,144.31,226.45
87,145.05,227.68
88,145.58,228.58
89,145.92,229.18
90,146.08,229.46
91,146.09,229.46
92,145.91,229.14
93,145.57,228.57
94,144.68,227.83
95,143.25,226.8
96,141.34,225.55
97,139.04,223.87
98,136.53,221.85
99,133.76,219.65
100,130.85,217.45
101,127.91,215.41
102,124.95,213.55
103,122.05,211.92
104,119.48,210.45
105,117.38,209.16
106,115.84,208.04
107,115.14,207.38
108,115.26,207.23
109,116.5,207.86
110,118.66,209.14
111,121.52,210.94
112,124.78,213.06
113,128.18,215.31
114,131.59,217.71
115,134.87,220.13
116,137.92,222.52
117,140.55,224.81
118,142.68,226.93
119,144.33,228.93
120,145.56,230.77
121,146.39,232.45
122,146.87,233.74
123,147.05,234.59
124,147.13,234.89
125,147.17,234.72
126,146.87,233.88
127,146.16,232.44
128,145.01,230.5
129,143.46,228.17
130,141.63,225.64
131,139.4,223.03
132,136.91,220.5
133,134.26,218.17
134,131.45,215.99
135,128.59,213.99
136,125.65,212.15
137,122.75,210.54
138,119.98,209.17
139,117.75,208.22
140,116.16,207.72
141,115.65,207.84
142,116.13,208.48
143,117.47,209.54
144,119.53,210.93
145,122.09,212.5
146,125.05,214.25
147,128.19,216.06
148,131.37,217.86
149,134.42,219.77
150,137.23,221.76
151,139.8,223.84
152,142.11,225.88
153,144.12,227.77
154,145.81,229.44
155,147.16,230.86
156,148.12,231.85
157,148.73,232.43
158,148.87,232.41
159,148.62,231.88
160,148.03,230.92
161,147.03,229.65
162,145.69,228.17
163,143.94,226.69
164,141.92,225.36
165,139.77,224.24
166,137.49,223.34
167,135.19,222.64
168,132.93,221.95
169,130.81,221.23
170,128.91,220.44
171,127.18,219.71
172,125.63,219.08
173,124.29,218.58
174,123.2,218.2
175,122.35,217.92
176,121.69,217.75
177,121.2,217.69
178,120.78,217.67
179,120.43,217.64
180,120.1,217.5
181,119.81,217.26
182,119.57,216.92
183,119.85,216.68
184,120.72,216.62
185,122.41,216.94
186,124.7,217.6
187,127.39,218.57
188,130.27,219.76
189,133.15,221.06
190,135.91,222.52
191,138.44,224.1
192,140.67,225.73
193,142.57,227.34
194,144.14,228.87
195,145.37,230.27
196,146.27,231.5
197,146.89,232.55
198,147.23,233.55
199,147.32,234.53
200,147.31,235.46
201,147.28,236.27
202,147.28,236.93
203,147.28,237.45
204,147.26,237.84
205,147.29,237.91
206,147.37,237.65
207,147.54,237
208,147.78,236.09
209,148.07,235.02
210,147.94,233.68
211,147.33,232.12
212,146.18,230.24
213,144.73,228.18
214,143.13,226.03
215,141.24,223.85
216,139.08,221.73
217,136.41,219.65
218,133.39,217.66
219,130.12,215.8
220,126.84,214.13
221,123.71,212.69
222,120.67,211.46
223,117.79,210.42
224,115.08,209.57
225,112.59,208.8
226,110.36,208.1
227,108.46,207.47
228,106.91,206.94
229,105.76,206.52
230,104.94,206.17
231,104.43,205.87
232,104.61,205.75
233,105.49,205.83
234,107.52,206.32
235,110.5,207.18
236,114.21,208.36
237,118.35,209.86
238,122.63,211.59
239,126.84,213.63
240,130.81,215.85
241,134.4,218.16
242,137.65,220.47
243,140.53,222.68
244,143.03,224.75
245,145.11,226.63
246,146.78,228.28
247,148.07,229.75
248,149.02,231.03
249,149.55,232.04
250,149.7,232.74
251,149.49,233.14
252,149.22,233.46
253,148.98,233.8
254,148.82,234.1
255,148.69,234.31
256,148.46,234.38
257,148.11,234.3
258,147.64,234.1
259,147.1,233.5
260,146.51,232.5
261,145.8,231.03
262,144.99,229.25
263,144.11,227.29
264,142.79,225.18
265,141.02,223.01
266,138.66,220.77
267,135.92,218.56
268,133,216.44
269,129.96,214.43
270,126.93,212.55
271,123.96,210.78
272,121.16,209.15
273,118.6,207.68
274,116.32,206.42
275,114.34,205.4
276,112.51,204.72
277,110.8,204.36
278,109.18,204.3
279,107.61,204.38
280,106.11,204.51
281,105.07,204.78
282,104.62,205.23
283,104.81,205.85
284,106.02,206.64
285,108.17,207.55
286,111.36,208.72
287,115.19,210.1
288,119.52,211.94
289,124.05,214.16
290,128.56,216.67
291,132.76,219.3
292,136.49,221.9
293,139.64,224.29
294,142.2,226.36
295,144.2,228.07
296,145.67,229.55
297,146.68,230.87
298,147.37,231.9
299,147.85,232.61
300,148.2,232.96
301,148.46,233.16
302,148.66,233.29
303,148.81,233.45
304,148.93,233.63
305,149.02,233.82
306,149,233.97
307,148.86,234.05
308,148.56,233.7
309,148.14,232.9
310,147.62,231.65
311,146.92,230.15
312,146.08,228.56
313,144.93,226.85
314,143.52,225.08
315,141.68,223.26
316,139.51,221.45
317,137.11,219.74
318,134.48,218.12
319,131.75,216.64
320,128.8,215.27
321,125.77,214.04
322,122.76,212.96
323,119.88,211.89
324,117.24,210.8
325,114.82,209.69
326,112.63,208.66
327,110.7,207.73
328,108.98,206.89
329,107.48,206.11
330,106.46,205.51
331,105.96,205.12
332,105.99,204.94
333,106.78,205.14
334,108.27,205.7
335,110.77,206.91
336,114.04,208.67
337,117.89,210.89
338,121.92,213.19
339,125.87,215.39
340,129.7,217.36
341,133.28,219.08
342,136.64,220.63
343,139.68,222.02
344,142.36,223.26
345,144.57,224.51
346,146.28,225.81
347,147.55,227.07
348,148.45,228.21
349,149.06,229.15
350,149.32,229.86
351,149.27,230.34
352,149.01,230.68
353,148.64,230.95
354,148.24,231.2
355,147.87,231.63
356,147.54,232.27
357,147.29,233
358,147.09,233.68
359,146.95,234.23
360,146.86,234.58
361,146.8,234.72
362,146.85,234.68
363,147.01,234.51
364,147.28,234.25
365,147.62,234
366,147.98,233.8
367,148.4,233.76
368,148.86,233.85
369,149.29,234.2
370,149.66,234.75
371,149.94,235.47
372,150.06,236.16
373,150.01,236.75
374,149.96,237.01
375,149.96,236.95
376,150.07,236.6
377,150.2,236.05
378,150.3,235.39
379,150.42,234.78
380,150.55,234.27
381,150.72,233.89
382,150.81,233.45
383,150.77,232.89
384,150.43,232.07
385,149.83,231.07
386,148.98,229.94
387,147.99,228.74
388,146.94,227.56
389,145.67,226.33
390,144.21,225.07
391,142.59,223.81
392,140.59,222.33
393,138.26,220.61
394,135.42,218.82
395,132.24,217.13
396,128.82,215.51
397,125.39,213.95
398,122.11,212.43
399,119.06,211.02
400,116.31,209.76
401,113.85,208.58
402,111.72,207.45
403,109.92,206.36
404,108.4,205.48
405,107.13,204.83
406,105.96,204.44
407,104.87,204.25
408,103.85,204.21
409,102.99,204.33
410,102.3,204.59
411,101.8,204.92
412,101.46,205.28
413,101.25,205.62
414,101.26,205.99
415,101.46,206.38
416,101.71,206.53
417,101.91,206.36
418,102,205.85
419,102.02,205.16
420,101.97,204.38
421,101.78,203.68
422,101.44,203.12
423,101.03,202.71
424,100.6,202.45
425,100.21,202.29
426,99.9,202.22
427,99.68,202.21
428,99.54,202.22
429,99.46,202.22
430,99.44,202.22
431,99.46,202.18
432,99.49,202.1
433,99.95,202.17
434,100.87,202.44
435,102.27,202.92
436,104.47,203.72
437,107.37,204.79
438,111.05,206.25
439,115.14,207.97
440,119.39,209.88
441,123.71,211.92
442,127.95,213.99
443,132.01,216.09
444,135.76,218.11
445,139.09,220.01
446,141.93,221.87
447,144.25,223.69
448,146.08,225.43
449,147.47,227.02
450,148.5,228.45
451,149.23,229.73
452,149.73,230.85
453,150.04,231.8
454,150.21,232.59
455,150.36,233.27
456,150.56,233.86
457,150.83,234.4
458,151.05,234.77
459,151.19,234.98
460,151.15,235.08
461,150.94,235.11
462,150.58,235.13
463,150.21,235.01
464,149.91,234.72
465,149.64,234.42
466,149.4,234.22
467,149.15,234.17
468,148.94,234.1
469,148.79,233.96
470,148.61,233.77
471,148.39,233.62
472,148.1,233.53
473,147.92,233.47
474,147.9,233.41
475,147.99,233.4
476,148.13,233.46
477,148.2,233.47
478,148.17,233.4
479,148.04,233.22
480,147.94,233.11
481,147.93,233.12
482,147.98,233.23
483,148.04,233.38
484,148.08,233.51
485,148.13,233.44
486,148.2,233.14
487,148.13,232.58
488,147.89,231.85
489,147.46,231.02
490,146.73,229.99
491,145.74,228.77
492,144.21,227.2
493,142.21,225.39
494,139.84,223.4
495,137.17,221.27
496,134.36,219.07
497,131.29,216.89
498,128.12,214.83
499,124.92,212.97
500,121.94,211.35
501,119.29,209.98
502,116.89,208.75
503,114.7,207.64
504,112.75,206.8
505,111.11,206.29
506,109.79,206.12
507,108.72,206.06
508,107.85,205.98
509,107,205.72
510,106.16,205.28
511,105.29,204.69
512,104.4,204.19
513,103.51,203.85
514,102.65,203.65
515,101.85,203.51
516,101.14,203.39
517,100.53,203.31
518,100.01,203.28
519,99.65,203.32
520,99.45,203.43
521,99.39,203.59
522,99.43,203.61
523,99.54,203.46
524,99.73,203.26
525,99.96,203.08
526,100.24,203.12
527,100.47,203.35
528,100.64,203.76
529,100.72,204.22
530,100.74,204.67
531,100.66,205
532,100.49,205.2
533,100.23,205.28
534,99.96,205.16
535,99.71,204.85
536,99.6,204.49
537,99.65,204.15
538,99.87,203.91
539,100.05,203.69
540,100.14,203.47
541,100.14,203.29
542,100.1,203.18
543,100.07,203.14
544,100.13,203.08
545,100.28,202.97
546,100.51,202.87
547,100.76,202.81
548,101,202.84
549,101.28,202.92
550,101.59,203.04
551,101.67,203.03
552,101.45,202.88
553,100.9,202.57
554,100.33,202.29
555,99.87,202.12
556,99.59,202
557,99.42,201.86
558,99.34,201.63
559,99.37,201.35
560,99.5,201.02
561,99.68,200.77
562,99.84,200.61
563,99.91,200.58
564,99.89,200.63
565,99.77,200.74
566,99.59,200.78
567,99.38,200.71
568,99.24,200.57
569,99.2,200.42
570,99.26,200.28
571,99.29,200.28
572,99.25,200.43
573,99.15,200.56
574,99.04,200.6
575,98.97,200.48
576,98.92,200.41
577,98.88,200.42
578,98.9,200.46
579,98.95,200.47
580,99.04,200.39
581,99.19,200.29
582,99.37,200.19
583,99.53,200.22
584,99.65,200.39
585,99.69,200.75
586,99.63,201.26
587,99.47,201.87
588,99.23,202.47
589,98.95,202.99
590,98.64,203.33
591,98.34,203.49
592,98.05,203.46
593,97.8,203.26
594,97.58,202.92
595,97.45,202.47
596,97.41,201.97
597,97.47,201.46
598,97.54,201.02
599,97.59,200.69
600,97.69,200.45
601,97.89,200.27
602,98.2,200.13
603,98.54,199.99
604,98.86,199.86
605,99.13,199.77
606,99.32,199.75
607,99.44,199.81
608,99.58,199.91
609,99.76,200.03
610,100.01,200.26
611,100.29,200.57
612,100.58,200.92
613,100.73,201.25
614,100.7,201.52
615,100.5,201.71
616,100.22,201.82
617,99.93,201.91
618,99.67,202
619,99.44,202.11
620,99.24,202.32
621,99.04,202.63
622,98.79,202.99
623,98.5,203.37
624,98.16,203.72
625,97.8,203.98
626,97.46,204.14
627,97.17,204.16
628,96.94,204.08
629,96.78,203.91
630,96.6,203.63
631,96.38,203.27
632,96.02,202.9
633,95.53,202.56
634,94.95,202.29
635,94.36,202.09
636,93.81,201.94
637,93.45,201.9
638,93.33,201.95
639,93.44,201.96
640,93.73,201.88
641,94.15,201.67
642,94.57,201.59
643,94.93,201.72
644,95.19,201.96
645,95.38,202.19
646,95.54,202.35
647,95.75,202.47
648,96.04,202.56
649,96.39,202.63
650,96.78,202.65
651,97.17,202.64
652,97.47,202.64
653,97.63,202.69
654,97.74,202.85
655,97.85,203.11
656,97.98,203.44
657,97.97,203.62
658,97.78,203.59
659,97.52,203.38
660,97.3,203.08
661,97.18,202.76
662,97.01,202.47
663,96.74,202.22
664,96.43,202.04
665,96.15,201.91
666,95.95,201.69
667,95.78,201.35
668,95.64,200.88
669,95.56,200.53
670,95.55,200.38
671,95.62,200.57
672,96.01,201.05
673,96.74,201.76
674,98.47,202.72
675,101.13,203.88
676,104.84,205.39
677,109.17,207.18
678,113.8,209.17
679,118.52,211.3
680,123.13,213.48
681,127.55,215.78
682,131.65,218.12
683,135.35,220.46
684,138.48,222.79
685,141.01,225.06
686,142.91,227.08
687,144.27,228.73
688,145.15,229.95
689,145.68,230.87
690,145.95,231.54
691,146.11,232.04
692,146.23,232.39
693,146.36,232.69
694,146.46,232.98
695,146.51,233.3
696,146.58,233.58
697,146.67,233.82
698,146.81,233.99
699,146.94,234.12
700,147.05,234.2
701,147.1,234.24
702,147.09,234.26
703,147.02,234.37
704,146.92,234.58
705,146.8,234.92
706,146.62,235.23
707,146.38,235.48
708,146.16,235.58
709,146.02,235.54
710,145.97,235.37
711,146.02,235.1
712,146.14,234.76
713,146.41,234.45
714,146.8,234.23
715,147.3,234.11
716,147.88,234.1
717,148.48,234.19
718,148.99,234.29
719,149.35,234.37
720,149.53,234.38
721,149.6,234.33
722,149.6,234.22
723,149.62,234.19
724,149.69,234.26
725,149.8,234.38
726,149.87,234.48
727,149.85,234.53
728,149.85,234.53
729,149.91,234.5
730,150.06,234.49
731,150.22,234.49
732,150.35,234.52
733,150.28,234.64
734,150.02,234.87
735,149.68,235.25
736,149.35,235.74
737,149.1,236.32
738,148.92,236.68
739,148.79,236.74
740,148.75,236.46
741,148.77,235.93
742,148.85,235.24
743,148.99,234.61
744,149.19,234.12
745,149.42,233.74
746,149.67,233.43
747,149.91,233.18
748,150.09,233.03
749,150.18,232.97
750,150.13,232.94
751,149.95,232.89
752,149.67,232.94
753,149.33,233.12
754,148.97,233.46
755,148.61,233.75
756,148.27,233.93
757,147.97,234.17
758,147.89,234.54
759,148.07,235.09
760,148.35,235.5
761,148.61,235.66
762,148.81,235.66
763,148.99,235.61
764,149.17,235.6
765,149.39,235.56
766,149.66,235.47
767,149.89,235.39
768,150.05,235.34
769,150.1,235.33
770,150.08,235.37
771,150.01,235.42
772,149.88,235.52
773,149.7,235.66
774,149.48,235.77
775,149.22,235.83
776,148.94,235.83
777,148.74,235.95
778,148.67,236.22
779,148.74,236.48
780,148.86,236.62
781,148.98,236.58
782,149.15,236.52
783,149.37,236.51
784,149.67,236.41
785,149.95,236.19
786,150.18,235.82
787,150.3,235.45
788,150.33,235.18
789,150.23,234.92
790,150.01,234.63
791,149.69,234.3
792,149.49,233.99
793,149.46,233.75
794,149.49,233.64
795,149.5,233.67
796,149.42,233.82
797,149.32,233.95
798,149.22,234.04
799,149.11,234.07
800,148.99,234.07
801,148.85,234.18
802,148.65,234.41
803,148.4,234.76
804,148.15,234.99
805,147.94,235.03
806,147.79,234.95
807,147.73,234.85
808,147.74,234.78
809,147.87,234.72
810,148.1,234.65
811,148.41,234.59
812,148.67,234.56
813,148.81,234.57
814,148.84,234.59
815,148.8,234.63
816,148.73,234.65
817,148.56,234.64
818,148.3,234.6
819,148.01,234.68
820,147.77,234.89
821,147.67,235.1
822,147.7,235.22
823,147.84,235.18
824,148,235.04
825,148.14,234.83
826,148.18,234.74
827,148.11,234.83
828,147.95,235.09
829,147.85,235.44
830,147.83,235.82
831,147.91,236.15
832,148.04,236.4
833,148.18,236.66
834,148.32,236.97
835,148.46,237.35
836,148.58,237.65
837,148.69,237.82
838,148.78,237.9
839,148.89,237.94
840,149.01,237.96
841,149.06,237.9
842,149.03,237.75
843,148.9,237.44
844,148.79,237.01
845,148.73,236.5
846,148.71,236.08
847,148.68,235.83
848,148.57,235.45
849,148.39,234.83
850,148.13,233.93
851,147.78,232.74
852,147.36,231.35
853,146.62,229.76
854,145.56,228.11
855,144.2,226.48
856,142.54,224.99
857,140.68,223.67
858,138.78,222.47
859,136.99,221.38
860,135.42,220.54
861,134.43,220
862,134.07,219.79
863,134.46,219.97
864,135.4,220.5
865,136.73,221.32
866,138.3,222.31
867,139.95,223.36
868,141.51,224.56
869,142.89,225.88
870,144.02,227.07
871,144.86,228.02
872,145.44,228.62
873,145.65,228.83
874,145.56,228.67
875,144.93,228.1
876,143.82,227.21
877,142.31,226.1
878,140.48,224.62
879,138.48,222.83
880,136.6,220.91
881,134.99,219.08
882,133.76,217.74
883,133.13,216.95
884,133.07,216.71
885,133.67,216.97
886,134.75,217.59
887,136.17,218.71
888,137.73,220.25
889,139.33,222.12
890,140.88,224.01
891,142.34,225.76
892,143.66,227.11
893,144.71,228.02
894,145.47,228.5
895,145.7,228.4
896,145.46,227.8
897,144.78,226.69
898,143.73,225.26
899,142.42,223.66
900,140.59,221.91
901,138.34,220.1
902,136.04,218.32
903,134,216.67
904,132.41,215.21
905,131.52,214.33
906,131.3,214.1
907,131.91,214.69
908,133.16,215.88
909,134.88,217.53
910,136.81,219.43
911,138.78,221.42
912,140.62,223.36
913,142.27,225.14
914,143.68,226.45
915,144.68,227.26
916,145.27,227.54
917,145.29,227.42
918,144.84,227
919,143.99,226.2
920,142.73,225.08
921,141.16,223.71
922,139.03,221.98
923,136.47,219.99
924,133.58,218.03
925,130.85,216.32
926,128.51,215
927,127.11,214.15
928,126.66,213.75
929,127.1,213.75
930,128.35,214.03
931,130.18,214.49
932,132.52,215.38
933,135.15,216.67
934,137.81,218.43
935,140.31,220.45
936,142.53,222.59
937,144.35,224.4
938,145.76,225.75
939,146.43,226.47
940,146.4,226.66
941,145.72,226.2
942,144.45,225.19
943,142.77,223.72
944,140.61,221.98
945,138.14,220.14
946,135.5,218.41
947,133.03,216.91
948,130.9,215.71
949,129.62,215.01
950,129.23,214.83
951,129.69,215.14
952,130.83,215.77
953,132.44,216.61
954,134.32,217.72
955,136.28,219.06
956,138.17,220.61
957,139.94,222.24
958,141.54,223.85
959,142.8,225.18
960,143.66,226.13
961,143.99,226.59
962,143.86,226.6
963,143.35,226.26
964,142.33,225.5
965,140.88,224.39
966,138.85,223.06
967,136.43,221.67
968,133.74,220.21
969,131.26,218.7
970,129.17,217.18
971,127.94,216.03
972,127.54,215.33
973,127.93,215.23
974,129.15,215.59
975,131.02,216.29
976,133.37,217.43
977,135.92,218.95
978,138.46,220.65
979,140.8,222.34
980,142.86,223.89
981,144.46,225.06
982,145.62,225.8
983,146.34,226.05
984,146.51,225.88
985,146.17,225.39
986,144.99,224.52
987,143.08,223.34
988,140.43,221.9
989,137.33,220.37
990,134.02,218.84
991,131.09,217.44
992,128.74,216.2
993,127.46,215.32
994,127.17,214.82
995,127.75,214.83
996,129.09,215.26
997,130.95,216.03
998,133.19,217.2
999,135.6,218.71
1000,138,220.4
=====End_data=====
=====Start_data=====
Date: 23/01/2022, Time: 00:00
Notes: filter and calibrated data
Collection period (s): 20.00, Sampling Frequency (Hz): 50.00
Counter, Distance(mm)
0,3.98,-22.97
1,12.53,-7.88
2,25.81,15.57
3,41.63,43.75
4,58.33,73.82
5,74.88,103.54
6,90.52,131.35
7,104.77,156.28
8,117.2,177.93
9,127.65,196.16
10,136.09,211.13
11,142.66,223.03
12,147.54,232.14
13,151.07,238.77
14,153.5,243.29
15,155.05,245.9
16,155.87,246.96
17,156.14,246.8
18,156.02,245.95
19,155.66,244.74
20,155.1,243.16
21,154.41,241.27
22,153.64,239.13
23,152.85,236.69
24,152.09,234.04
25,151.1,231.3
26,149.85,228.66
27,148.34,226.24
28,146.49,224.13
29,144.38,222.36
30,141.87,220.76
31,139.1,219.26
32,136.19,217.82
33,133.18,216.39
34,130.17,215
35,127.21,213.51
36,124.39,211.98
37,122.13,210.82
38,120.54,210.19
39,119.67,210.17
40,119.84,210.52
41,121.01,211.09
42,123.08,211.93
43,125.68,213.02
44,128.55,214.32
45,131.54,215.85
46,134.51,217.55
47,137.29,219.51
48,139.72,221.77
49,141.72,224.26
50,143.29,226.84
51,144.59,229.3
52,145.69,231.52
53,146.63,233.42
54,147.39,234.84
55,147.97,235.76
56,148.33,235.91
57,148.48,235.37
58,148.45,234.22
59,148.06,232.54
60,147.32,230.52
61,145.95,228.29
62,144.07,226.06
63,141.68,223.96
64,139.01,222.06
65,136.23,220.41
66,133.28,218.93
67,130.25,217.62
68,127.07,216.32
69,123.89,215.04
70,120.81,213.76
71,118.34,212.61
72,116.62,211.63
73,116.15,211.08
74,116.82,210.95
75,118.48,211.24
76,120.86,212.02
77,123.71,213.2
78,126.92,214.88
79,130.28,216.89
80,133.64,219.1
81,136.84,221.4
82,139.78,223.65
83,142.38,225.79
84,144.61,227.72
85,146.33,229.31
86,147.53,230.51
87,148.34,231.21
88,148.89,231.49
89,149.23,231.46
90,149.38,231.27
91,149.35,231.02
92,148.97,230.55
93,148.23,229.85
94,146.96,228.71
95,145.26,227.18
96,143.26,225.36
97,140.85,223.29
98,138.15,221.08
99,135.09,218.79
100,131.89,216.52
101,128.69,214.37
102,125.53,212.47
103,122.5,210.87
104,119.87,209.76
105,117.76,209.12
106,116.24,208.94
107,115.7,209.11
108,116.11,209.53
109,117.62,210.25
110,119.93,211.21
111,122.78,212.48
112,125.94,213.98
113,129.19,215.62
114,132.36,217.37
115,135.37,219.3
116,138.12,221.38
117,140.58,223.51
118,142.65,225.53
119,144.3,227.36
120,145.55,228.95
121,146.45,230.28
122,147.06,231.35
123,147.53,232.01
124,147.95,232.24
125,148.05,231.91
126,147.79,231.12
127,147.13,229.97
128,146.08,228.5
129,144.72,226.82
130,142.96,224.9
131,140.91,222.86
132,138.67,220.8
133,136.09,218.73
134,133.21,216.7
135,130.11,214.79
136,127.03,213.07
137,124.12,211.6
138,121.43,210.4
139,119.02,209.47
140,117.32,209.01
141,116.44,209
142,116.38,209.46
143,117.31,210.22
144,119.08,211.16
145,121.68,212.38
146,124.79,213.81
147,128.24,215.47
148,131.77,217.22
149,135.17,219.1
150,138.24,221.1
151,140.87,223.16
152,143.05,225.18
153,144.83,227.13
154,146.28,228.94
155,147.42,230.4
156,148.25,231.44
157,148.83,232.04
158,149.11,232.27
159,149.12,232.21
160,148.75,231.66
161,148.05,230.63
162,147.08,229.19
163,145.64,227.39
164,143.8,225.37
165,141.35,223.19
166,138.46,220.98
167,135.29,218.82
168,131.95,216.8
169,128.62,214.96
170,125.18,213.35
171,121.74,212
172,118.38,210.64
173,115.26,209.25
174,112.47,207.77
175,110.04,206.35
176,107.97,205.06
177,106.23,203.96
178,104.79,203.07
179,103.64,202.39
180,102.85,201.9
181,102.97,201.87
182,104.06,202.35
183,106.4,203.46
184,109.66,205.04
185,113.67,207.17
186,118.05,209.66
187,122.51,212.39
188,126.89,215.03
189,131.03,217.41
190,134.81,219.57
191,138.13,221.52
192,140.93,223.42
193,143.24,225.25
194,145.11,227
195,146.51,228.6
196,147.5,230.01
197,148.08,231.16
198,148.34,232.03
199,148.34,232.65
200,148.27,233.17
201,148.21,233.68
202,148.1,234.22
203,147.91,234.74
204,147.62,235.23
205,147.39,235.45
206,147.26,235.37
207,147.2,234.94
208,147.18,234.29
209,147.16,233.49
210,146.94,232.64
211,146.52,231.8
212,145.74,230.71
213,144.68,229.36
214,143.43,227.75
215,141.43,225.76
216,138.68,223.45
217,135.22,220.9
218,131.45,218.37
219,127.56,216.02
220,123.73,213.94
221,120.07,212.09
222,116.71,210.45
223,113.73,208.93
224,111.1,207.53
225,108.81,206.26
226,106.94,205.06
227,105.53,203.93
228,104.44,202.94
229,103.55,202.1
230,102.79,201.46
231,102.54,201.12
232,102.84,201.08
233,104.11,201.55
234,106.17,202.48
235,108.9,203.8
236,112.25,205.46
237,116.03,207.33
238,120.21,209.29
239,124.49,211.2
240,128.7,212.95
241,132.66,214.83
242,136.24,216.84
243,139.37,219.12
244,142.03,221.51
245,144.21,223.88
246,145.92,226.1
247,147.19,228.07
248,148.06,229.75
249,148.57,231.13
250,148.76,232.25
251,148.72,233.12
252,148.53,233.78
253,148.34,234.25
254,148.21,234.57
255,148.16,234.76
256,148.16,234.78
257,148.21,234.63
258,148.1,234.09
259,147.79,233.18
260,147.27,231.95
261,146.4,230.53
262,145.24,229.04
263,143.64,227.4
264,141.72,225.67
265,139.59,223.89
266,137.21,222.06
267,134.67,220.24
268,131.95,218.52
269,129.19,217
270,126.5,215.5
271,123.81,214
272,121.18,212.46
273,118.49,211.1
274,115.85,209.97
275,113.31,209
276,111.03,208.12
277,109.09,207.28
278,107.45,206.49
279,106.09,205.76
280,105.19,205.19
281,104.76,204.78
282,104.79,204.57
283,106,204.89
284,108.4,205.78
285,111.93,207.22
286,116.2,209.07
287,120.82,211.16
288,125.51,213.53
289,130,216.04
290,134.11,218.6
291,137.76,221.3
292,140.91,224.07
293,143.41,226.52
294,145.26,228.43
295,146.49,229.85
296,147.33,230.94
297,147.9,231.81
298,148.33,232.54
299,148.65,233.16
300,148.9,233.74
301,149.05,234.29
302,149.11,234.83
303,149.1,235.35
304,149.03,235.84
305,148.93,236.14
306,148.8,236.21
307,148.67,236.03
308,148.44,235.32
309,148.09,234.08
310,147.42,232.43
311,146.44,230.63
312,145.2,228.85
313,143.62,227.05
314,141.79,225.26
315,139.58,223.33
316,137.13,221.3
317,134.37,219.17
318,131.22,216.97
319,127.78,214.78
320,124.2,212.53
321,120.64,210.3
322,117.24,208.13
323,114.1,206.31
324,111.3,204.93
325,108.9,203.93
326,106.98,203.23
327,105.54,202.72
328,104.42,202.3
329,103.52,201.92
330,102.76,201.71
331,102.37,201.72
332,102.38,201.95
333,103.26,202.49
334,104.91,203.29
335,107.59,204.51
336,111.03,206.04
337,114.99,207.81
338,119.21,209.89
339,123.44,212.19
340,127.56,214.79
341,131.4,217.51
342,134.87,220.25
343,137.96,222.9
344,140.63,225.38
345,142.81,227.55
346,144.5,229.35
347,145.71,230.75
348,146.58,231.88
349,147.18,232.8
350,147.64,233.56
351,147.93,234.25
352,148.08,234.9
353,148.22,235.38
354,148.45,235.66
355,148.8,235.79
356,149.03,235.86
357,149.06,235.91
358,149.01,235.87
359,148.95,235.73
360,148.97,235.59
361,148.93,235.52
362,148.8,235.55
363,148.59,235.51
364,148.34,235.36
365,148.09,235.19
366,147.86,235.05
367,147.65,235.01
368,147.47,234.95
369,147.32,234.85
370,147.31,234.86
371,147.44,235.06
372,147.72,235.45
373,148.04,235.82
374,148.34,236.05
375,148.62,236.16
376,148.87,236.2
377,149.11,236.25
378,149.29,236.31
379,149.42,236.38
380,149.6,236.42
381,149.85,236.39
382,150.19,236.19
383,150.42,235.83
384,150.48,235.32
385,149.96,234.46
386,148.88,233.27
387,147.27,231.79
388,145.2,229.82
389,142.81,227.45
390,139.97,224.75
391,136.83,221.96
392,133.52,219.26
393,130.13,216.71
394,126.8,214.38
395,123.56,212.3
396,120.55,210.5
397,117.81,209
398,115.37,207.77
399,113.24,206.76
400,111.31,205.99
401,109.56,205.44
402,107.99,204.95
403,106.49,204.46
404,105.05,203.93
405,103.77,203.41
406,102.72,202.91
407,101.95,202.57
408,101.31,202.4
409,100.73,202.43
410,100.18,202.61
411,99.68,202.9
412,99.24,203.25
413,98.86,203.6
414,98.56,203.92
415,98.23,204.06
416,97.87,204.02
417,97.54,203.82
418,97.3,203.56
419,97.11,203.35
420,96.95,203.21
421,96.83,202.97
422,96.79,202.57
423,96.83,202
424,96.91,201.49
425,97.03,201.13
426,97.19,200.93
427,97.39,200.81
428,97.61,200.75
429,97.82,200.71
430,97.98,200.7
431,98.13,200.71
432,98.26,200.73
433,98.4,201.03
434,98.95,201.64
435,99.98,202.56
436,101.99,203.8
437,104.81,205.25
438,108.3,207.08
439,112.25,209.2
440,116.4,211.53
441,120.74,213.94
442,125.05,216.3
443,129.19,218.57
444,133.04,220.7
445,136.51,222.64
446,139.54,224.47
447,142.07,226.19
448,144.18,227.71
449,145.94,228.95
450,147.38,229.88
451,148.43,230.61
452,149.09,231.22
453,149.33,231.73
454,149.32,232.24
455,149.15,232.76
456,148.92,233.3
457,148.65,233.77
458,148.38,234.13
459,148.11,234.36
460,147.73,234.45
461,147.23,234.44
462,146.73,234.36
463,146.32,234.23
464,146.08,234.02
465,145.87,233.73
466,145.67,233.39
467,145.57,233.24
468,145.62,233.33
469,145.84,233.64
470,146.1,234.07
471,146.36,234.52
472,146.58,234.82
473,146.75,234.9
474,146.84,234.9
475,146.82,234.94
476,146.71,235.08
477,146.66,235.17
478,146.69,235.17
479,146.78,235.11
480,146.88,235.03
481,146.96,235.11
482,146.99,235.36
483,146.97,235.79
484,146.85,236.12
485,146.64,236.28
486,146.36,235.9
487,145.76,234.91
488,144.85,233.36
489,143.63,231.45
490,142.26,229.39
491,140.65,227.34
492,138.84,225.41
493,136.73,223.49
494,134.43,221.62
495,132.05,219.66
496,129.5,217.67
497,126.84,215.71
498,124,213.9
499,121.11,212.3
500,118.28,210.92
501,115.53,209.76
502,112.94,208.8
503,110.69,208
504,108.9,207.35
505,107.43,206.66
506,106.19,205.9
507,105.1,205.19
508,104.14,204.61
509,103.32,204.23
510,102.53,203.97
511,101.78,203.81
512,101.05,203.68
513,100.38,203.56
514,99.78,203.45
515,99.29,203.35
516,98.92,203.26
517,98.66,203.24
518,98.61,203.29
519,98.75,203.42
520,99,203.64
521,99.13,203.85
522,99.07,204
523,98.81,204.05
524,98.45,203.93
525,98.06,203.63
526,97.67,203.28
527,97.31,202.97
528,96.98,202.75
529,96.79,202.66
530,96.72,202.7
531,96.8,202.72
532,96.92,202.65
533,97.04,202.49
534,97.17,202.28
535,97.33,202.07
536,97.46,201.92
537,97.5,201.84
538,97.46,201.79
539,97.43,201.75
540,97.45,201.67
541,97.5,201.64
542,97.53,201.66
543,97.52,201.72
544,97.49,201.79
545,97.44,201.85
546,97.33,201.93
547,97.15,202.03
548,96.92,201.99
549,96.78,201.77
550,96.79,201.37
551,96.94,201.01
552,97.17,200.79
553,97.43,200.67
554,97.7,200.59
555,97.95,200.5
556,98.16,200.31
557,98.31,199.99
558,98.4,199.59
559,98.39,199.15
560,98.28,198.78
561,98.03,198.51
562,97.66,198.35
563,97.34,198.4
564,97.14,198.67
565,97.1,199.17
566,97.07,199.82
567,96.98,200.55
568,96.82,201.22
569,96.61,201.77
570,96.38,202.12
571,96.11,202.27
572,95.83,202.26
573,95.56,202.08
574,95.32,201.76
575,95.14,201.36
576,95.04,200.94
577,95,200.55
578,95.03,200.24
579,95.1,200.04
580,95.2,199.97
581,95.31,200.02
582,95.42,200.17
583,95.56,200.42
584,95.72,200.76
585,95.9,200.98
586,96.14,201.05
587,96.38,200.92
588,96.61,200.67
589,96.79,200.27
590,96.95,199.75
591,97.11,199.14
592,97.22,198.72
593,97.25,198.59
594,97.21,198.58
595,97.04,198.54
596,96.74,198.37
597,96.3,198.29
598,95.78,198.35
599,95.21,198.51
600,94.67,198.69
601,94.19,198.83
602,93.73,198.8
603,93.29,198.59
604,92.86,198.36
605,92.57,198.21
606,92.44,198.2
607,92.49,198.26
608,92.65,198.35
609,92.89,198.56
610,93.12,198.89
611,93.3,199.32
612,93.52,199.77
613,93.81,200.21
614,94.18,200.61
615,94.37,200.97
616,94.33,201.24
617,94.12,201.44
618,93.86,201.55
619,93.56,201.63
620,93.19,201.69
621,92.76,201.67
622,92.48,201.55
623,92.38,201.33
624,92.38,201.05
625,92.37,200.75
626,92.29,200.42
627,92.16,200.07
628,92.01,199.71
629,91.93,199.5
630,91.95,199.48
631,92.07,199.44
632,92.26,199.28
633,92.48,198.93
634,92.77,198.65
635,93.12,198.49
636,93.52,198.51
637,93.77,198.66
638,93.83,198.95
639,93.74,199.33
640,93.6,199.8
641,93.47,200.2
642,93.44,200.46
643,93.51,200.57
644,93.66,200.56
645,93.86,200.47
646,94.06,200.27
647,94.14,199.99
648,94.08,199.76
649,93.88,199.66
650,93.58,199.71
651,93.23,199.81
652,92.87,199.92
653,92.52,199.98
654,92.19,199.98
655,91.89,199.93
656,91.67,199.89
657,91.51,199.9
658,91.43,199.78
659,91.51,199.48
660,91.75,198.98
661,92.23,198.57
662,92.88,198.36
663,93.67,198.36
664,94.4,198.47
665,95,198.6
666,95.34,198.73
667,95.43,198.83
668,95.32,198.86
669,95.09,198.81
670,94.8,198.78
671,94.96,198.83
672,95.65,198.98
673,96.89,199.32
674,98.87,199.86
675,101.45,200.88
676,104.87,202.35
677,108.86,204.22
678,113.21,206.47
679,117.69,208.99
680,122.08,211.8
681,126.22,214.73
682,129.97,217.65
683,133.23,220.36
684,135.99,222.75
685,138.25,224.81
686,140.05,226.55
687,141.47,228.02
688,142.54,229.25
689,143.31,230.3
690,143.84,231.17
691,144.19,231.88
692,144.41,232.57
693,144.52,233.28
694,144.53,234.03
695,144.45,234.66
696,144.43,235.12
697,144.49,235.35
698,144.57,235.41
699,144.59,235.32
700,144.52,235.18
701,144.47,235.05
702,144.48,234.93
703,144.59,234.81
704,144.78,234.68
705,145.04,234.55
706,145.3,234.44
707,145.53,234.33
708,145.82,234.24
709,146.2,234.16
710,146.61,234.1
711,147,234.05
712,147.33,233.99
713,147.46,233.9
714,147.38,233.79
715,147.12,233.73
716,146.75,233.73
717,146.35,233.82
718,146.05,233.99
719,145.89,234.13
720,145.92,234.21
721,146.09,234.2
722,146.36,234.16
723,146.59,234.11
724,146.72,234.17
725,146.69,234.37
726,146.54,234.7
727,146.3,235.06
728,146.06,235.38
729,145.86,235.59
730,145.78,235.68
731,145.82,235.65
732,145.96,235.6
733,146.12,235.55
734,146.25,235.49
735,146.3,235.4
736,146.28,235.26
737,146.2,235.2
738,146.13,235.25
739,146.1,235.25
740,146.05,235.11
741,145.94,234.8
742,145.84,234.51
743,145.8,234.32
744,145.83,234.33
745,145.91,234.51
746,146.03,234.74
747,146.22,234.95
748,146.47,235.11
749,146.78,235.15
750,147.07,235.1
751,147.29,235.22
752,147.56,235.58
753,147.93,236.23
754,148.4,236.78
755,148.87,237.1
756,149.28,237.16
757,149.48,237.06
758,149.45,236.87
759,149.18,236.51
760,148.94,235.98
761,148.79,235.42
762,148.81,234.94
763,148.94,234.6
764,149.14,234.44
765,149.3,234.44
766,149.38,234.47
767,149.37,234.46
768,149.28,234.38
769,149.13,234.33
770,148.92,234.34
771,148.67,234.36
772,148.41,234.34
773,148.15,234.23
774,147.93,234.04
775,147.77,233.81
776,147.67,233.65
777,147.56,233.61
778,147.43,233.71
779,147.26,233.91
780,147.08,234.15
781,146.89,234.48
782,146.71,234.87
783,146.55,235.28
784,146.46,235.68
785,146.45,236.02
786,146.53,236.29
787,146.61,236.48
788,146.66,236.64
789,146.74,236.8
790,146.87,236.97
791,147.08,237.07
792,147.31,237.06
793,147.51,237.01
794,147.68,236.94
795,147.82,236.89
796,147.93,236.79
797,148.06,236.61
798,148.23,236.44
799,148.49,236.36
800,148.84,236.34
801,149.17,236.33
802,149.44,236.31
803,149.6,236.25
804,149.63,236.15
805,149.53,236.02
806,149.22,235.88
807,148.73,235.73
808,148.08,235.64
809,147.48,235.62
810,147.02,235.66
811,146.7,235.72
812,146.47,235.77
813,146.28,235.95
814,146.13,236.29
815,146.02,236.58
816,146.05,236.75
817,146.22,236.72
818,146.55,236.68
819,146.88,236.71
820,147.16,236.89
821,147.46,237.16
822,147.8,237.5
823,148.21,237.74
824,148.67,237.83
825,149.16,237.74
826,149.66,237.54
827,150.13,237.25
828,150.48,236.85
829,150.69,236.36
830,150.74,235.8
831,150.66,235.25
832,150.47,234.87
833,150.27,234.71
834,150.08,234.78
835,149.94,234.78
836,149.82,234.63
837,149.71,234.49
838,149.62,234.48
839,149.56,234.66
840,149.55,234.8
841,149.51,234.83
842,149.42,234.75
843,149.29,234.63
844,149.13,234.51
845,148.95,234.54
846,148.83,234.73
847,148.78,234.93
848,148.74,235.04
849,148.65,235.02
850,148.5,234.65
851,148.18,233.94
852,147.69,232.84
853,146.84,231.47
854,145.65,229.95
855,144.2,228.14
856,142.45,226.09
857,140.5,223.93
858,138.51,221.84
859,136.66,220.06
860,135.33,218.66
861,134.57,217.64
862,134.38,217.05
863,134.76,216.84
864,135.6,217.14
865,136.82,217.84
866,138.27,218.88
867,139.8,220.26
868,141.34,221.87
869,142.81,223.52
870,143.96,225.04
871,144.72,226.31
872,145.05,226.97
873,145.09,226.98
874,144.94,226.41
875,144.46,225.47
876,143.68,224.36
877,142.61,223.11
878,141,221.79
879,138.9,220.39
880,136.6,218.99
881,134.41,217.64
882,132.53,216.44
883,131.22,215.44
884,130.48,215.07
885,130.53,215.35
886,131.23,216.41
887,132.53,218.03
888,134.24,220.01
889,136.16,222.04
890,138.2,223.95
891,140.23,225.45
892,141.94,226.5
893,143.2,227.1
894,143.97,227.44
895,144.19,227.61
896,143.94,227.43
897,143.12,226.89
898,141.87,225.97
899,140.31,224.77
900,138.45,223.4
901,136.4,221.8
902,134.3,220.06
903,132.31,218.25
904,130.52,216.73
905,129.29,215.61
906,128.68,215.24
907,128.86,215.58
908,129.66,216.53
909,130.93,217.78
910,132.5,219.14
911,134.2,220.59
912,135.96,222.1
913,137.71,223.55
914,139.38,224.85
915,140.88,225.92
916,142.16,226.52
917,142.97,226.62
918,143.28,226.12
919,142.98,225.18
920,142.2,223.92
921,141.05,222.48
922,139.39,220.98
923,137.29,219.58
924,135.09,218.37
925,133.04,217.39
926,131.34,216.77
927,130.29,216.49
928,129.91,216.53
929,130.35,216.8
930,131.41,217.22
931,132.93,217.95
932,134.75,218.99
933,136.71,220.36
934,138.65,221.91
935,140.48,223.54
936,142.11,224.95
937,143.32,226.03
938,144.09,226.79
939,144.2,227.3
940,143.72,227.33
941,142.77,226.85
942,141.39,225.87
943,139.72,224.51
944,137.6,222.88
945,135.15,221.21
946,132.65,219.66
947,130.34,218.32
948,128.39,217.42
949,127.18,216.98
950,126.77,217.04
951,127.32,217.49
952,128.61,218.2
953,130.44,219.17
954,132.59,220.32
955,134.85,221.81
956,137.11,223.55
957,139.26,225.5
958,141.23,227.15
959,142.82,228.36
960,143.97,228.86
961,144.48,228.77
962,144.43,228.18
963,143.89,227.33
964,142.74,226.37
965,141.08,225.12
966,138.84,223.58
967,136.24,221.72
968,133.44,219.71
969,131.03,217.68
970,129.21,216.08
971,128.34,215.05
972,128.33,214.62
973,129.06,214.62
974,130.34,214.91
975,131.98,215.65
976,133.8,216.8
977,135.63,218.31
978,137.42,220
979,139.1,221.71
980,140.65,223.25
981,141.86,224.53
982,142.69,225.45
983,142.97,226.05
984,142.76,226.35
985,142.15,226.2
986,141.1,225.62
987,139.7,224.59
988,137.72,223.27
989,135.28,221.8
990,132.49,220.33
991,129.89,218.94
992,127.71,217.87
993,126.55,217.15
994,126.39,216.8
995,127.16,216.72
996,128.66,216.84
997,130.63,217.29
998,132.89,218.02
999,135.23,219.07
1000,137.49,220.31
=====End_data=====
